 v [cm^-1]    I(v) [Ang^4 amu^-1]
 29.000000               0.000086
 29.100000               0.000087
 29.200000               0.000087
 29.300000               0.000087
 29.400000               0.000087
 29.500000               0.000087
 29.600000               0.000087
 29.700000               0.000087
 29.800000               0.000087
 29.900000               0.000087
 30.000000               0.000087
 30.100000               0.000087
 30.200000               0.000087
 30.300000               0.000087
 30.400000               0.000087
 30.500000               0.000088
 30.600000               0.000088
 30.700000               0.000088
 30.800000               0.000088
 30.900000               0.000088
 31.000000               0.000088
 31.100000               0.000088
 31.200000               0.000088
 31.300000               0.000088
 31.400000               0.000088
 31.500000               0.000088
 31.600000               0.000088
 31.700000               0.000088
 31.800000               0.000088
 31.900000               0.000089
 32.000000               0.000089
 32.100000               0.000089
 32.200000               0.000089
 32.300000               0.000089
 32.400000               0.000089
 32.500000               0.000089
 32.600000               0.000089
 32.700000               0.000089
 32.800000               0.000089
 32.900000               0.000089
 33.000000               0.000089
 33.100000               0.000089
 33.200000               0.000089
 33.300000               0.000090
 33.400000               0.000090
 33.500000               0.000090
 33.600000               0.000090
 33.700000               0.000090
 33.800000               0.000090
 33.900000               0.000090
 34.000000               0.000090
 34.100000               0.000090
 34.200000               0.000090
 34.300000               0.000090
 34.400000               0.000090
 34.500000               0.000090
 34.600000               0.000090
 34.700000               0.000091
 34.800000               0.000091
 34.900000               0.000091
 35.000000               0.000091
 35.100000               0.000091
 35.200000               0.000091
 35.300000               0.000091
 35.400000               0.000091
 35.500000               0.000091
 35.600000               0.000091
 35.700000               0.000091
 35.800000               0.000091
 35.900000               0.000091
 36.000000               0.000092
 36.100000               0.000092
 36.200000               0.000092
 36.300000               0.000092
 36.400000               0.000092
 36.500000               0.000092
 36.600000               0.000092
 36.700000               0.000092
 36.800000               0.000092
 36.900000               0.000092
 37.000000               0.000092
 37.100000               0.000092
 37.200000               0.000092
 37.300000               0.000093
 37.400000               0.000093
 37.500000               0.000093
 37.600000               0.000093
 37.700000               0.000093
 37.800000               0.000093
 37.900000               0.000093
 38.000000               0.000093
 38.100000               0.000093
 38.200000               0.000093
 38.300000               0.000093
 38.400000               0.000093
 38.500000               0.000093
 38.600000               0.000094
 38.700000               0.000094
 38.800000               0.000094
 38.900000               0.000094
 39.000000               0.000094
 39.100000               0.000094
 39.200000               0.000094
 39.300000               0.000094
 39.400000               0.000094
 39.500000               0.000094
 39.600000               0.000094
 39.700000               0.000094
 39.800000               0.000095
 39.900000               0.000095
 40.000000               0.000095
 40.100000               0.000095
 40.200000               0.000095
 40.300000               0.000095
 40.400000               0.000095
 40.500000               0.000095
 40.600000               0.000095
 40.700000               0.000095
 40.800000               0.000095
 40.900000               0.000095
 41.000000               0.000096
 41.100000               0.000096
 41.200000               0.000096
 41.300000               0.000096
 41.400000               0.000096
 41.500000               0.000096
 41.600000               0.000096
 41.700000               0.000096
 41.800000               0.000096
 41.900000               0.000096
 42.000000               0.000096
 42.100000               0.000096
 42.200000               0.000096
 42.300000               0.000097
 42.400000               0.000097
 42.500000               0.000097
 42.600000               0.000097
 42.700000               0.000097
 42.800000               0.000097
 42.900000               0.000097
 43.000000               0.000097
 43.100000               0.000097
 43.200000               0.000097
 43.300000               0.000097
 43.400000               0.000098
 43.500000               0.000098
 43.600000               0.000098
 43.700000               0.000098
 43.800000               0.000098
 43.900000               0.000098
 44.000000               0.000098
 44.100000               0.000098
 44.200000               0.000098
 44.300000               0.000098
 44.400000               0.000098
 44.500000               0.000098
 44.600000               0.000099
 44.700000               0.000099
 44.800000               0.000099
 44.900000               0.000099
 45.000000               0.000099
 45.100000               0.000099
 45.200000               0.000099
 45.300000               0.000099
 45.400000               0.000099
 45.500000               0.000099
 45.600000               0.000099
 45.700000               0.000100
 45.800000               0.000100
 45.900000               0.000100
 46.000000               0.000100
 46.100000               0.000100
 46.200000               0.000100
 46.300000               0.000100
 46.400000               0.000100
 46.500000               0.000100
 46.600000               0.000100
 46.700000               0.000100
 46.800000               0.000100
 46.900000               0.000101
 47.000000               0.000101
 47.100000               0.000101
 47.200000               0.000101
 47.300000               0.000101
 47.400000               0.000101
 47.500000               0.000101
 47.600000               0.000101
 47.700000               0.000101
 47.800000               0.000101
 47.900000               0.000102
 48.000000               0.000102
 48.100000               0.000102
 48.200000               0.000102
 48.300000               0.000102
 48.400000               0.000102
 48.500000               0.000102
 48.600000               0.000102
 48.700000               0.000102
 48.800000               0.000102
 48.900000               0.000102
 49.000000               0.000103
 49.100000               0.000103
 49.200000               0.000103
 49.300000               0.000103
 49.400000               0.000103
 49.500000               0.000103
 49.600000               0.000103
 49.700000               0.000103
 49.800000               0.000103
 49.900000               0.000103
 50.000000               0.000104
 50.100000               0.000104
 50.200000               0.000104
 50.300000               0.000104
 50.400000               0.000104
 50.500000               0.000104
 50.600000               0.000104
 50.700000               0.000104
 50.800000               0.000104
 50.900000               0.000104
 51.000000               0.000104
 51.100000               0.000105
 51.200000               0.000105
 51.300000               0.000105
 51.400000               0.000105
 51.500000               0.000105
 51.600000               0.000105
 51.700000               0.000105
 51.800000               0.000105
 51.900000               0.000105
 52.000000               0.000106
 52.100000               0.000106
 52.200000               0.000106
 52.300000               0.000106
 52.400000               0.000106
 52.500000               0.000106
 52.600000               0.000106
 52.700000               0.000106
 52.800000               0.000106
 52.900000               0.000106
 53.000000               0.000107
 53.100000               0.000107
 53.200000               0.000107
 53.300000               0.000107
 53.400000               0.000107
 53.500000               0.000107
 53.600000               0.000107
 53.700000               0.000107
 53.800000               0.000107
 53.900000               0.000108
 54.000000               0.000108
 54.100000               0.000108
 54.200000               0.000108
 54.300000               0.000108
 54.400000               0.000108
 54.500000               0.000108
 54.600000               0.000108
 54.700000               0.000108
 54.800000               0.000109
 54.900000               0.000109
 55.000000               0.000109
 55.100000               0.000109
 55.200000               0.000109
 55.300000               0.000109
 55.400000               0.000109
 55.500000               0.000109
 55.600000               0.000110
 55.700000               0.000110
 55.800000               0.000110
 55.900000               0.000110
 56.000000               0.000110
 56.100000               0.000110
 56.200000               0.000110
 56.300000               0.000110
 56.400000               0.000111
 56.500000               0.000111
 56.600000               0.000111
 56.700000               0.000111
 56.800000               0.000111
 56.900000               0.000111
 57.000000               0.000111
 57.100000               0.000111
 57.200000               0.000112
 57.300000               0.000112
 57.400000               0.000112
 57.500000               0.000112
 57.600000               0.000112
 57.700000               0.000112
 57.800000               0.000112
 57.900000               0.000113
 58.000000               0.000113
 58.100000               0.000113
 58.200000               0.000113
 58.300000               0.000113
 58.400000               0.000113
 58.500000               0.000114
 58.600000               0.000114
 58.700000               0.000114
 58.800000               0.000114
 58.900000               0.000114
 59.000000               0.000114
 59.100000               0.000115
 59.200000               0.000115
 59.300000               0.000115
 59.400000               0.000115
 59.500000               0.000115
 59.600000               0.000115
 59.700000               0.000116
 59.800000               0.000116
 59.900000               0.000116
 60.000000               0.000116
 60.100000               0.000116
 60.200000               0.000117
 60.300000               0.000117
 60.400000               0.000117
 60.500000               0.000117
 60.600000               0.000118
 60.700000               0.000118
 60.800000               0.000118
 60.900000               0.000118
 61.000000               0.000119
 61.100000               0.000119
 61.200000               0.000119
 61.300000               0.000119
 61.400000               0.000120
 61.500000               0.000120
 61.600000               0.000120
 61.700000               0.000121
 61.800000               0.000121
 61.900000               0.000121
 62.000000               0.000122
 62.100000               0.000122
 62.200000               0.000122
 62.300000               0.000123
 62.400000               0.000123
 62.500000               0.000124
 62.600000               0.000124
 62.700000               0.000125
 62.800000               0.000125
 62.900000               0.000126
 63.000000               0.000126
 63.100000               0.000127
 63.200000               0.000128
 63.300000               0.000128
 63.400000               0.000129
 63.500000               0.000130
 63.600000               0.000131
 63.700000               0.000132
 63.800000               0.000133
 63.900000               0.000134
 64.000000               0.000135
 64.100000               0.000136
 64.200000               0.000138
 64.300000               0.000139
 64.400000               0.000141
 64.500000               0.000142
 64.600000               0.000144
 64.700000               0.000147
 64.800000               0.000149
 64.900000               0.000152
 65.000000               0.000155
 65.100000               0.000158
 65.200000               0.000162
 65.300000               0.000166
 65.400000               0.000172
 65.500000               0.000178
 65.600000               0.000185
 65.700000               0.000193
 65.800000               0.000203
 65.900000               0.000215
 66.000000               0.000229
 66.100000               0.000247
 66.200000               0.000270
 66.300000               0.000300
 66.400000               0.000339
 66.500000               0.000392
 66.600000               0.000466
 66.700000               0.000577
 66.800000               0.000749
 66.900000               0.001040
 67.000000               0.001593
 67.100000               0.002846
 67.200000               0.006758
 67.300000               0.033227
 67.400000               0.183859
 67.500000               0.013215
 67.600000               0.004236
 67.700000               0.002100
 67.800000               0.001279
 67.900000               0.000880
 68.000000               0.000657
 68.100000               0.000519
 68.200000               0.000429
 68.300000               0.000366
 68.400000               0.000321
 68.500000               0.000287
 68.600000               0.000261
 68.700000               0.000241
 68.800000               0.000225
 68.900000               0.000212
 69.000000               0.000201
 69.100000               0.000193
 69.200000               0.000185
 69.300000               0.000179
 69.400000               0.000174
 69.500000               0.000169
 69.600000               0.000165
 69.700000               0.000162
 69.800000               0.000159
 69.900000               0.000156
 70.000000               0.000154
 70.100000               0.000152
 70.200000               0.000150
 70.300000               0.000148
 70.400000               0.000147
 70.500000               0.000145
 70.600000               0.000144
 70.700000               0.000143
 70.800000               0.000142
 70.900000               0.000141
 71.000000               0.000140
 71.100000               0.000140
 71.200000               0.000139
 71.300000               0.000138
 71.400000               0.000138
 71.500000               0.000137
 71.600000               0.000137
 71.700000               0.000137
 71.800000               0.000136
 71.900000               0.000136
 72.000000               0.000136
 72.100000               0.000135
 72.200000               0.000135
 72.300000               0.000135
 72.400000               0.000134
 72.500000               0.000134
 72.600000               0.000134
 72.700000               0.000134
 72.800000               0.000134
 72.900000               0.000134
 73.000000               0.000134
 73.100000               0.000133
 73.200000               0.000133
 73.300000               0.000133
 73.400000               0.000133
 73.500000               0.000133
 73.600000               0.000133
 73.700000               0.000133
 73.800000               0.000133
 73.900000               0.000133
 74.000000               0.000133
 74.100000               0.000133
 74.200000               0.000133
 74.300000               0.000133
 74.400000               0.000133
 74.500000               0.000133
 74.600000               0.000133
 74.700000               0.000133
 74.800000               0.000133
 74.900000               0.000133
 75.000000               0.000133
 75.100000               0.000133
 75.200000               0.000133
 75.300000               0.000133
 75.400000               0.000133
 75.500000               0.000133
 75.600000               0.000133
 75.700000               0.000133
 75.800000               0.000133
 75.900000               0.000133
 76.000000               0.000134
 76.100000               0.000134
 76.200000               0.000134
 76.300000               0.000134
 76.400000               0.000134
 76.500000               0.000134
 76.600000               0.000134
 76.700000               0.000134
 76.800000               0.000134
 76.900000               0.000134
 77.000000               0.000134
 77.100000               0.000134
 77.200000               0.000134
 77.300000               0.000135
 77.400000               0.000135
 77.500000               0.000135
 77.600000               0.000135
 77.700000               0.000135
 77.800000               0.000135
 77.900000               0.000135
 78.000000               0.000135
 78.100000               0.000135
 78.200000               0.000135
 78.300000               0.000135
 78.400000               0.000136
 78.500000               0.000136
 78.600000               0.000136
 78.700000               0.000136
 78.800000               0.000136
 78.900000               0.000136
 79.000000               0.000136
 79.100000               0.000136
 79.200000               0.000136
 79.300000               0.000137
 79.400000               0.000137
 79.500000               0.000137
 79.600000               0.000137
 79.700000               0.000137
 79.800000               0.000137
 79.900000               0.000137
 80.000000               0.000137
 80.100000               0.000137
 80.200000               0.000138
 80.300000               0.000138
 80.400000               0.000138
 80.500000               0.000138
 80.600000               0.000138
 80.700000               0.000138
 80.800000               0.000138
 80.900000               0.000138
 81.000000               0.000139
 81.100000               0.000139
 81.200000               0.000139
 81.300000               0.000139
 81.400000               0.000139
 81.500000               0.000139
 81.600000               0.000139
 81.700000               0.000139
 81.800000               0.000139
 81.900000               0.000140
 82.000000               0.000140
 82.100000               0.000140
 82.200000               0.000140
 82.300000               0.000140
 82.400000               0.000140
 82.500000               0.000140
 82.600000               0.000141
 82.700000               0.000141
 82.800000               0.000141
 82.900000               0.000141
 83.000000               0.000141
 83.100000               0.000141
 83.200000               0.000141
 83.300000               0.000141
 83.400000               0.000142
 83.500000               0.000142
 83.600000               0.000142
 83.700000               0.000142
 83.800000               0.000142
 83.900000               0.000142
 84.000000               0.000142
 84.100000               0.000143
 84.200000               0.000143
 84.300000               0.000143
 84.400000               0.000143
 84.500000               0.000143
 84.600000               0.000143
 84.700000               0.000143
 84.800000               0.000143
 84.900000               0.000144
 85.000000               0.000144
 85.100000               0.000144
 85.200000               0.000144
 85.300000               0.000144
 85.400000               0.000144
 85.500000               0.000144
 85.600000               0.000145
 85.700000               0.000145
 85.800000               0.000145
 85.900000               0.000145
 86.000000               0.000145
 86.100000               0.000145
 86.200000               0.000145
 86.300000               0.000146
 86.400000               0.000146
 86.500000               0.000146
 86.600000               0.000146
 86.700000               0.000146
 86.800000               0.000146
 86.900000               0.000146
 87.000000               0.000147
 87.100000               0.000147
 87.200000               0.000147
 87.300000               0.000147
 87.400000               0.000147
 87.500000               0.000147
 87.600000               0.000147
 87.700000               0.000148
 87.800000               0.000148
 87.900000               0.000148
 88.000000               0.000148
 88.100000               0.000148
 88.200000               0.000148
 88.300000               0.000149
 88.400000               0.000149
 88.500000               0.000149
 88.600000               0.000149
 88.700000               0.000149
 88.800000               0.000149
 88.900000               0.000149
 89.000000               0.000150
 89.100000               0.000150
 89.200000               0.000150
 89.300000               0.000150
 89.400000               0.000150
 89.500000               0.000150
 89.600000               0.000151
 89.700000               0.000151
 89.800000               0.000151
 89.900000               0.000151
 90.000000               0.000151
 90.100000               0.000151
 90.200000               0.000151
 90.300000               0.000152
 90.400000               0.000152
 90.500000               0.000152
 90.600000               0.000152
 90.700000               0.000152
 90.800000               0.000152
 90.900000               0.000153
 91.000000               0.000153
 91.100000               0.000153
 91.200000               0.000153
 91.300000               0.000153
 91.400000               0.000153
 91.500000               0.000153
 91.600000               0.000154
 91.700000               0.000154
 91.800000               0.000154
 91.900000               0.000154
 92.000000               0.000154
 92.100000               0.000154
 92.200000               0.000155
 92.300000               0.000155
 92.400000               0.000155
 92.500000               0.000155
 92.600000               0.000155
 92.700000               0.000155
 92.800000               0.000156
 92.900000               0.000156
 93.000000               0.000156
 93.100000               0.000156
 93.200000               0.000156
 93.300000               0.000156
 93.400000               0.000157
 93.500000               0.000157
 93.600000               0.000157
 93.700000               0.000157
 93.800000               0.000157
 93.900000               0.000157
 94.000000               0.000158
 94.100000               0.000158
 94.200000               0.000158
 94.300000               0.000158
 94.400000               0.000158
 94.500000               0.000158
 94.600000               0.000159
 94.700000               0.000159
 94.800000               0.000159
 94.900000               0.000159
 95.000000               0.000159
 95.100000               0.000159
 95.200000               0.000160
 95.300000               0.000160
 95.400000               0.000160
 95.500000               0.000160
 95.600000               0.000160
 95.700000               0.000160
 95.800000               0.000161
 95.900000               0.000161
 96.000000               0.000161
 96.100000               0.000161
 96.200000               0.000161
 96.300000               0.000162
 96.400000               0.000162
 96.500000               0.000162
 96.600000               0.000162
 96.700000               0.000162
 96.800000               0.000162
 96.900000               0.000163
 97.000000               0.000163
 97.100000               0.000163
 97.200000               0.000163
 97.300000               0.000163
 97.400000               0.000163
 97.500000               0.000164
 97.600000               0.000164
 97.700000               0.000164
 97.800000               0.000164
 97.900000               0.000164
 98.000000               0.000165
 98.100000               0.000165
 98.200000               0.000165
 98.300000               0.000165
 98.400000               0.000165
 98.500000               0.000165
 98.600000               0.000166
 98.700000               0.000166
 98.800000               0.000166
 98.900000               0.000166
 99.000000               0.000166
 99.100000               0.000166
 99.200000               0.000167
 99.300000               0.000167
 99.400000               0.000167
 99.500000               0.000167
 99.600000               0.000167
 99.700000               0.000168
 99.800000               0.000168
 99.900000               0.000168
100.000000               0.000168
100.100000               0.000168
100.200000               0.000169
100.300000               0.000169
100.400000               0.000169
100.500000               0.000169
100.600000               0.000169
100.700000               0.000169
100.800000               0.000170
100.900000               0.000170
101.000000               0.000170
101.100000               0.000170
101.200000               0.000170
101.300000               0.000171
101.400000               0.000171
101.500000               0.000171
101.600000               0.000171
101.700000               0.000171
101.800000               0.000172
101.900000               0.000172
102.000000               0.000172
102.100000               0.000172
102.200000               0.000172
102.300000               0.000173
102.400000               0.000173
102.500000               0.000173
102.600000               0.000173
102.700000               0.000173
102.800000               0.000173
102.900000               0.000174
103.000000               0.000174
103.100000               0.000174
103.200000               0.000174
103.300000               0.000174
103.400000               0.000175
103.500000               0.000175
103.600000               0.000175
103.700000               0.000175
103.800000               0.000175
103.900000               0.000176
104.000000               0.000176
104.100000               0.000176
104.200000               0.000176
104.300000               0.000176
104.400000               0.000177
104.500000               0.000177
104.600000               0.000177
104.700000               0.000177
104.800000               0.000177
104.900000               0.000178
105.000000               0.000178
105.100000               0.000178
105.200000               0.000178
105.300000               0.000178
105.400000               0.000179
105.500000               0.000179
105.600000               0.000179
105.700000               0.000179
105.800000               0.000179
105.900000               0.000180
106.000000               0.000180
106.100000               0.000180
106.200000               0.000180
106.300000               0.000181
106.400000               0.000181
106.500000               0.000181
106.600000               0.000181
106.700000               0.000181
106.800000               0.000182
106.900000               0.000182
107.000000               0.000182
107.100000               0.000182
107.200000               0.000182
107.300000               0.000183
107.400000               0.000183
107.500000               0.000183
107.600000               0.000183
107.700000               0.000183
107.800000               0.000184
107.900000               0.000184
108.000000               0.000184
108.100000               0.000184
108.200000               0.000185
108.300000               0.000185
108.400000               0.000185
108.500000               0.000185
108.600000               0.000185
108.700000               0.000186
108.800000               0.000186
108.900000               0.000186
109.000000               0.000186
109.100000               0.000186
109.200000               0.000187
109.300000               0.000187
109.400000               0.000187
109.500000               0.000187
109.600000               0.000188
109.700000               0.000188
109.800000               0.000188
109.900000               0.000188
110.000000               0.000188
110.100000               0.000189
110.200000               0.000189
110.300000               0.000189
110.400000               0.000189
110.500000               0.000190
110.600000               0.000190
110.700000               0.000190
110.800000               0.000190
110.900000               0.000190
111.000000               0.000191
111.100000               0.000191
111.200000               0.000191
111.300000               0.000191
111.400000               0.000192
111.500000               0.000192
111.600000               0.000192
111.700000               0.000192
111.800000               0.000192
111.900000               0.000193
112.000000               0.000193
112.100000               0.000193
112.200000               0.000193
112.300000               0.000194
112.400000               0.000194
112.500000               0.000194
112.600000               0.000194
112.700000               0.000195
112.800000               0.000195
112.900000               0.000195
113.000000               0.000195
113.100000               0.000196
113.200000               0.000196
113.300000               0.000196
113.400000               0.000196
113.500000               0.000196
113.600000               0.000197
113.700000               0.000197
113.800000               0.000197
113.900000               0.000197
114.000000               0.000198
114.100000               0.000198
114.200000               0.000198
114.300000               0.000198
114.400000               0.000199
114.500000               0.000199
114.600000               0.000199
114.700000               0.000199
114.800000               0.000200
114.900000               0.000200
115.000000               0.000200
115.100000               0.000200
115.200000               0.000201
115.300000               0.000201
115.400000               0.000201
115.500000               0.000201
115.600000               0.000201
115.700000               0.000202
115.800000               0.000202
115.900000               0.000202
116.000000               0.000202
116.100000               0.000203
116.200000               0.000203
116.300000               0.000203
116.400000               0.000203
116.500000               0.000204
116.600000               0.000204
116.700000               0.000204
116.800000               0.000204
116.900000               0.000205
117.000000               0.000205
117.100000               0.000205
117.200000               0.000205
117.300000               0.000206
117.400000               0.000206
117.500000               0.000206
117.600000               0.000206
117.700000               0.000207
117.800000               0.000207
117.900000               0.000207
118.000000               0.000208
118.100000               0.000208
118.200000               0.000208
118.300000               0.000208
118.400000               0.000209
118.500000               0.000209
118.600000               0.000209
118.700000               0.000209
118.800000               0.000210
118.900000               0.000210
119.000000               0.000210
119.100000               0.000210
119.200000               0.000211
119.300000               0.000211
119.400000               0.000211
119.500000               0.000211
119.600000               0.000212
119.700000               0.000212
119.800000               0.000212
119.900000               0.000212
120.000000               0.000213
120.100000               0.000213
120.200000               0.000213
120.300000               0.000214
120.400000               0.000214
120.500000               0.000214
120.600000               0.000214
120.700000               0.000215
120.800000               0.000215
120.900000               0.000215
121.000000               0.000215
121.100000               0.000216
121.200000               0.000216
121.300000               0.000216
121.400000               0.000217
121.500000               0.000217
121.600000               0.000217
121.700000               0.000217
121.800000               0.000218
121.900000               0.000218
122.000000               0.000218
122.100000               0.000218
122.200000               0.000219
122.300000               0.000219
122.400000               0.000219
122.500000               0.000220
122.600000               0.000220
122.700000               0.000220
122.800000               0.000220
122.900000               0.000221
123.000000               0.000221
123.100000               0.000221
123.200000               0.000222
123.300000               0.000222
123.400000               0.000222
123.500000               0.000222
123.600000               0.000223
123.700000               0.000223
123.800000               0.000223
123.900000               0.000224
124.000000               0.000224
124.100000               0.000224
124.200000               0.000224
124.300000               0.000225
124.400000               0.000225
124.500000               0.000225
124.600000               0.000226
124.700000               0.000226
124.800000               0.000226
124.900000               0.000226
125.000000               0.000227
125.100000               0.000227
125.200000               0.000227
125.300000               0.000228
125.400000               0.000228
125.500000               0.000228
125.600000               0.000228
125.700000               0.000229
125.800000               0.000229
125.900000               0.000229
126.000000               0.000230
126.100000               0.000230
126.200000               0.000230
126.300000               0.000231
126.400000               0.000231
126.500000               0.000231
126.600000               0.000231
126.700000               0.000232
126.800000               0.000232
126.900000               0.000232
127.000000               0.000233
127.100000               0.000233
127.200000               0.000233
127.300000               0.000234
127.400000               0.000234
127.500000               0.000234
127.600000               0.000235
127.700000               0.000235
127.800000               0.000235
127.900000               0.000235
128.000000               0.000236
128.100000               0.000236
128.200000               0.000236
128.300000               0.000237
128.400000               0.000237
128.500000               0.000237
128.600000               0.000238
128.700000               0.000238
128.800000               0.000238
128.900000               0.000239
129.000000               0.000239
129.100000               0.000239
129.200000               0.000240
129.300000               0.000240
129.400000               0.000240
129.500000               0.000240
129.600000               0.000241
129.700000               0.000241
129.800000               0.000241
129.900000               0.000242
130.000000               0.000242
130.100000               0.000242
130.200000               0.000243
130.300000               0.000243
130.400000               0.000243
130.500000               0.000244
130.600000               0.000244
130.700000               0.000244
130.800000               0.000245
130.900000               0.000245
131.000000               0.000245
131.100000               0.000246
131.200000               0.000246
131.300000               0.000246
131.400000               0.000247
131.500000               0.000247
131.600000               0.000247
131.700000               0.000248
131.800000               0.000248
131.900000               0.000248
132.000000               0.000249
132.100000               0.000249
132.200000               0.000249
132.300000               0.000250
132.400000               0.000250
132.500000               0.000250
132.600000               0.000251
132.700000               0.000251
132.800000               0.000251
132.900000               0.000252
133.000000               0.000252
133.100000               0.000252
133.200000               0.000253
133.300000               0.000253
133.400000               0.000253
133.500000               0.000254
133.600000               0.000254
133.700000               0.000254
133.800000               0.000255
133.900000               0.000255
134.000000               0.000256
134.100000               0.000256
134.200000               0.000256
134.300000               0.000257
134.400000               0.000257
134.500000               0.000257
134.600000               0.000258
134.700000               0.000258
134.800000               0.000258
134.900000               0.000259
135.000000               0.000259
135.100000               0.000259
135.200000               0.000260
135.300000               0.000260
135.400000               0.000261
135.500000               0.000261
135.600000               0.000261
135.700000               0.000262
135.800000               0.000262
135.900000               0.000262
136.000000               0.000263
136.100000               0.000263
136.200000               0.000263
136.300000               0.000264
136.400000               0.000264
136.500000               0.000265
136.600000               0.000265
136.700000               0.000265
136.800000               0.000266
136.900000               0.000266
137.000000               0.000266
137.100000               0.000267
137.200000               0.000267
137.300000               0.000268
137.400000               0.000268
137.500000               0.000268
137.600000               0.000269
137.700000               0.000269
137.800000               0.000269
137.900000               0.000270
138.000000               0.000270
138.100000               0.000271
138.200000               0.000271
138.300000               0.000271
138.400000               0.000272
138.500000               0.000272
138.600000               0.000272
138.700000               0.000273
138.800000               0.000273
138.900000               0.000274
139.000000               0.000274
139.100000               0.000274
139.200000               0.000275
139.300000               0.000275
139.400000               0.000276
139.500000               0.000276
139.600000               0.000276
139.700000               0.000277
139.800000               0.000277
139.900000               0.000278
140.000000               0.000278
140.100000               0.000278
140.200000               0.000279
140.300000               0.000279
140.400000               0.000280
140.500000               0.000280
140.600000               0.000280
140.700000               0.000281
140.800000               0.000281
140.900000               0.000282
141.000000               0.000282
141.100000               0.000282
141.200000               0.000283
141.300000               0.000283
141.400000               0.000284
141.500000               0.000284
141.600000               0.000284
141.700000               0.000285
141.800000               0.000285
141.900000               0.000286
142.000000               0.000286
142.100000               0.000287
142.200000               0.000287
142.300000               0.000287
142.400000               0.000288
142.500000               0.000288
142.600000               0.000289
142.700000               0.000289
142.800000               0.000289
142.900000               0.000290
143.000000               0.000290
143.100000               0.000291
143.200000               0.000291
143.300000               0.000292
143.400000               0.000292
143.500000               0.000292
143.600000               0.000293
143.700000               0.000293
143.800000               0.000294
143.900000               0.000294
144.000000               0.000295
144.100000               0.000295
144.200000               0.000295
144.300000               0.000296
144.400000               0.000296
144.500000               0.000297
144.600000               0.000297
144.700000               0.000298
144.800000               0.000298
144.900000               0.000299
145.000000               0.000299
145.100000               0.000299
145.200000               0.000300
145.300000               0.000300
145.400000               0.000301
145.500000               0.000301
145.600000               0.000302
145.700000               0.000302
145.800000               0.000303
145.900000               0.000303
146.000000               0.000303
146.100000               0.000304
146.200000               0.000304
146.300000               0.000305
146.400000               0.000305
146.500000               0.000306
146.600000               0.000306
146.700000               0.000307
146.800000               0.000307
146.900000               0.000308
147.000000               0.000308
147.100000               0.000309
147.200000               0.000309
147.300000               0.000309
147.400000               0.000310
147.500000               0.000310
147.600000               0.000311
147.700000               0.000311
147.800000               0.000312
147.900000               0.000312
148.000000               0.000313
148.100000               0.000313
148.200000               0.000314
148.300000               0.000314
148.400000               0.000315
148.500000               0.000315
148.600000               0.000316
148.700000               0.000316
148.800000               0.000317
148.900000               0.000317
149.000000               0.000318
149.100000               0.000318
149.200000               0.000319
149.300000               0.000319
149.400000               0.000320
149.500000               0.000320
149.600000               0.000321
149.700000               0.000321
149.800000               0.000321
149.900000               0.000322
150.000000               0.000322
150.100000               0.000323
150.200000               0.000323
150.300000               0.000324
150.400000               0.000324
150.500000               0.000325
150.600000               0.000325
150.700000               0.000326
150.800000               0.000326
150.900000               0.000327
151.000000               0.000328
151.100000               0.000328
151.200000               0.000329
151.300000               0.000329
151.400000               0.000330
151.500000               0.000330
151.600000               0.000331
151.700000               0.000331
151.800000               0.000332
151.900000               0.000332
152.000000               0.000333
152.100000               0.000333
152.200000               0.000334
152.300000               0.000334
152.400000               0.000335
152.500000               0.000335
152.600000               0.000336
152.700000               0.000336
152.800000               0.000337
152.900000               0.000337
153.000000               0.000338
153.100000               0.000338
153.200000               0.000339
153.300000               0.000340
153.400000               0.000340
153.500000               0.000341
153.600000               0.000341
153.700000               0.000342
153.800000               0.000342
153.900000               0.000343
154.000000               0.000343
154.100000               0.000344
154.200000               0.000344
154.300000               0.000345
154.400000               0.000346
154.500000               0.000346
154.600000               0.000347
154.700000               0.000347
154.800000               0.000348
154.900000               0.000348
155.000000               0.000349
155.100000               0.000349
155.200000               0.000350
155.300000               0.000351
155.400000               0.000351
155.500000               0.000352
155.600000               0.000352
155.700000               0.000353
155.800000               0.000353
155.900000               0.000354
156.000000               0.000355
156.100000               0.000355
156.200000               0.000356
156.300000               0.000356
156.400000               0.000357
156.500000               0.000357
156.600000               0.000358
156.700000               0.000359
156.800000               0.000359
156.900000               0.000360
157.000000               0.000360
157.100000               0.000361
157.200000               0.000362
157.300000               0.000362
157.400000               0.000363
157.500000               0.000363
157.600000               0.000364
157.700000               0.000364
157.800000               0.000365
157.900000               0.000366
158.000000               0.000366
158.100000               0.000367
158.200000               0.000368
158.300000               0.000368
158.400000               0.000369
158.500000               0.000369
158.600000               0.000370
158.700000               0.000371
158.800000               0.000371
158.900000               0.000372
159.000000               0.000372
159.100000               0.000373
159.200000               0.000374
159.300000               0.000374
159.400000               0.000375
159.500000               0.000376
159.600000               0.000376
159.700000               0.000377
159.800000               0.000377
159.900000               0.000378
160.000000               0.000379
160.100000               0.000379
160.200000               0.000380
160.300000               0.000381
160.400000               0.000381
160.500000               0.000382
160.600000               0.000382
160.700000               0.000383
160.800000               0.000384
160.900000               0.000384
161.000000               0.000385
161.100000               0.000386
161.200000               0.000386
161.300000               0.000387
161.400000               0.000388
161.500000               0.000388
161.600000               0.000389
161.700000               0.000390
161.800000               0.000390
161.900000               0.000391
162.000000               0.000392
162.100000               0.000392
162.200000               0.000393
162.300000               0.000394
162.400000               0.000394
162.500000               0.000395
162.600000               0.000396
162.700000               0.000396
162.800000               0.000397
162.900000               0.000398
163.000000               0.000398
163.100000               0.000399
163.200000               0.000400
163.300000               0.000400
163.400000               0.000401
163.500000               0.000402
163.600000               0.000403
163.700000               0.000403
163.800000               0.000404
163.900000               0.000405
164.000000               0.000405
164.100000               0.000406
164.200000               0.000407
164.300000               0.000407
164.400000               0.000408
164.500000               0.000409
164.600000               0.000410
164.700000               0.000410
164.800000               0.000411
164.900000               0.000412
165.000000               0.000412
165.100000               0.000413
165.200000               0.000414
165.300000               0.000415
165.400000               0.000415
165.500000               0.000416
165.600000               0.000417
165.700000               0.000417
165.800000               0.000418
165.900000               0.000419
166.000000               0.000420
166.100000               0.000420
166.200000               0.000421
166.300000               0.000422
166.400000               0.000423
166.500000               0.000423
166.600000               0.000424
166.700000               0.000425
166.800000               0.000426
166.900000               0.000426
167.000000               0.000427
167.100000               0.000428
167.200000               0.000429
167.300000               0.000429
167.400000               0.000430
167.500000               0.000431
167.600000               0.000432
167.700000               0.000433
167.800000               0.000433
167.900000               0.000434
168.000000               0.000435
168.100000               0.000436
168.200000               0.000436
168.300000               0.000437
168.400000               0.000438
168.500000               0.000439
168.600000               0.000440
168.700000               0.000440
168.800000               0.000441
168.900000               0.000442
169.000000               0.000443
169.100000               0.000444
169.200000               0.000444
169.300000               0.000445
169.400000               0.000446
169.500000               0.000447
169.600000               0.000448
169.700000               0.000448
169.800000               0.000449
169.900000               0.000450
170.000000               0.000451
170.100000               0.000452
170.200000               0.000453
170.300000               0.000453
170.400000               0.000454
170.500000               0.000455
170.600000               0.000456
170.700000               0.000457
170.800000               0.000458
170.900000               0.000458
171.000000               0.000459
171.100000               0.000460
171.200000               0.000461
171.300000               0.000462
171.400000               0.000463
171.500000               0.000464
171.600000               0.000464
171.700000               0.000465
171.800000               0.000466
171.900000               0.000467
172.000000               0.000468
172.100000               0.000469
172.200000               0.000470
172.300000               0.000470
172.400000               0.000471
172.500000               0.000472
172.600000               0.000473
172.700000               0.000474
172.800000               0.000475
172.900000               0.000476
173.000000               0.000477
173.100000               0.000478
173.200000               0.000478
173.300000               0.000479
173.400000               0.000480
173.500000               0.000481
173.600000               0.000482
173.700000               0.000483
173.800000               0.000484
173.900000               0.000485
174.000000               0.000486
174.100000               0.000487
174.200000               0.000488
174.300000               0.000488
174.400000               0.000489
174.500000               0.000490
174.600000               0.000491
174.700000               0.000492
174.800000               0.000493
174.900000               0.000494
175.000000               0.000495
175.100000               0.000496
175.200000               0.000497
175.300000               0.000498
175.400000               0.000499
175.500000               0.000500
175.600000               0.000501
175.700000               0.000502
175.800000               0.000503
175.900000               0.000504
176.000000               0.000505
176.100000               0.000506
176.200000               0.000507
176.300000               0.000508
176.400000               0.000509
176.500000               0.000510
176.600000               0.000511
176.700000               0.000512
176.800000               0.000513
176.900000               0.000514
177.000000               0.000515
177.100000               0.000516
177.200000               0.000517
177.300000               0.000518
177.400000               0.000519
177.500000               0.000520
177.600000               0.000521
177.700000               0.000522
177.800000               0.000523
177.900000               0.000524
178.000000               0.000525
178.100000               0.000526
178.200000               0.000527
178.300000               0.000528
178.400000               0.000529
178.500000               0.000530
178.600000               0.000531
178.700000               0.000532
178.800000               0.000533
178.900000               0.000534
179.000000               0.000535
179.100000               0.000536
179.200000               0.000537
179.300000               0.000538
179.400000               0.000540
179.500000               0.000541
179.600000               0.000542
179.700000               0.000543
179.800000               0.000544
179.900000               0.000545
180.000000               0.000546
180.100000               0.000547
180.200000               0.000548
180.300000               0.000549
180.400000               0.000550
180.500000               0.000552
180.600000               0.000553
180.700000               0.000554
180.800000               0.000555
180.900000               0.000556
181.000000               0.000557
181.100000               0.000558
181.200000               0.000559
181.300000               0.000561
181.400000               0.000562
181.500000               0.000563
181.600000               0.000564
181.700000               0.000565
181.800000               0.000566
181.900000               0.000568
182.000000               0.000569
182.100000               0.000570
182.200000               0.000571
182.300000               0.000572
182.400000               0.000573
182.500000               0.000575
182.600000               0.000576
182.700000               0.000577
182.800000               0.000578
182.900000               0.000579
183.000000               0.000581
183.100000               0.000582
183.200000               0.000583
183.300000               0.000584
183.400000               0.000585
183.500000               0.000587
183.600000               0.000588
183.700000               0.000589
183.800000               0.000590
183.900000               0.000592
184.000000               0.000593
184.100000               0.000594
184.200000               0.000595
184.300000               0.000596
184.400000               0.000598
184.500000               0.000599
184.600000               0.000600
184.700000               0.000602
184.800000               0.000603
184.900000               0.000604
185.000000               0.000605
185.100000               0.000607
185.200000               0.000608
185.300000               0.000609
185.400000               0.000611
185.500000               0.000612
185.600000               0.000613
185.700000               0.000614
185.800000               0.000616
185.900000               0.000617
186.000000               0.000618
186.100000               0.000620
186.200000               0.000621
186.300000               0.000622
186.400000               0.000624
186.500000               0.000625
186.600000               0.000626
186.700000               0.000628
186.800000               0.000629
186.900000               0.000630
187.000000               0.000632
187.100000               0.000633
187.200000               0.000635
187.300000               0.000636
187.400000               0.000637
187.500000               0.000639
187.600000               0.000640
187.700000               0.000641
187.800000               0.000643
187.900000               0.000644
188.000000               0.000646
188.100000               0.000647
188.200000               0.000649
188.300000               0.000650
188.400000               0.000651
188.500000               0.000653
188.600000               0.000654
188.700000               0.000656
188.800000               0.000657
188.900000               0.000659
189.000000               0.000660
189.100000               0.000662
189.200000               0.000663
189.300000               0.000664
189.400000               0.000666
189.500000               0.000667
189.600000               0.000669
189.700000               0.000670
189.800000               0.000672
189.900000               0.000673
190.000000               0.000675
190.100000               0.000676
190.200000               0.000678
190.300000               0.000679
190.400000               0.000681
190.500000               0.000682
190.600000               0.000684
190.700000               0.000686
190.800000               0.000687
190.900000               0.000689
191.000000               0.000690
191.100000               0.000692
191.200000               0.000693
191.300000               0.000695
191.400000               0.000697
191.500000               0.000698
191.600000               0.000700
191.700000               0.000701
191.800000               0.000703
191.900000               0.000704
192.000000               0.000706
192.100000               0.000708
192.200000               0.000709
192.300000               0.000711
192.400000               0.000713
192.500000               0.000714
192.600000               0.000716
192.700000               0.000718
192.800000               0.000719
192.900000               0.000721
193.000000               0.000723
193.100000               0.000724
193.200000               0.000726
193.300000               0.000728
193.400000               0.000729
193.500000               0.000731
193.600000               0.000733
193.700000               0.000734
193.800000               0.000736
193.900000               0.000738
194.000000               0.000740
194.100000               0.000741
194.200000               0.000743
194.300000               0.000745
194.400000               0.000747
194.500000               0.000748
194.600000               0.000750
194.700000               0.000752
194.800000               0.000754
194.900000               0.000755
195.000000               0.000757
195.100000               0.000759
195.200000               0.000761
195.300000               0.000763
195.400000               0.000764
195.500000               0.000766
195.600000               0.000768
195.700000               0.000770
195.800000               0.000772
195.900000               0.000774
196.000000               0.000775
196.100000               0.000777
196.200000               0.000779
196.300000               0.000781
196.400000               0.000783
196.500000               0.000785
196.600000               0.000787
196.700000               0.000789
196.800000               0.000791
196.900000               0.000792
197.000000               0.000794
197.100000               0.000796
197.200000               0.000798
197.300000               0.000800
197.400000               0.000802
197.500000               0.000804
197.600000               0.000806
197.700000               0.000808
197.800000               0.000810
197.900000               0.000812
198.000000               0.000814
198.100000               0.000816
198.200000               0.000818
198.300000               0.000820
198.400000               0.000822
198.500000               0.000824
198.600000               0.000826
198.700000               0.000828
198.800000               0.000830
198.900000               0.000832
199.000000               0.000834
199.100000               0.000836
199.200000               0.000839
199.300000               0.000841
199.400000               0.000843
199.500000               0.000845
199.600000               0.000847
199.700000               0.000849
199.800000               0.000851
199.900000               0.000853
200.000000               0.000855
200.100000               0.000858
200.200000               0.000860
200.300000               0.000862
200.400000               0.000864
200.500000               0.000866
200.600000               0.000869
200.700000               0.000871
200.800000               0.000873
200.900000               0.000875
201.000000               0.000877
201.100000               0.000880
201.200000               0.000882
201.300000               0.000884
201.400000               0.000886
201.500000               0.000889
201.600000               0.000891
201.700000               0.000893
201.800000               0.000896
201.900000               0.000898
202.000000               0.000900
202.100000               0.000903
202.200000               0.000905
202.300000               0.000907
202.400000               0.000910
202.500000               0.000912
202.600000               0.000914
202.700000               0.000917
202.800000               0.000919
202.900000               0.000922
203.000000               0.000924
203.100000               0.000926
203.200000               0.000929
203.300000               0.000931
203.400000               0.000934
203.500000               0.000936
203.600000               0.000939
203.700000               0.000941
203.800000               0.000944
203.900000               0.000946
204.000000               0.000949
204.100000               0.000951
204.200000               0.000954
204.300000               0.000956
204.400000               0.000959
204.500000               0.000961
204.600000               0.000964
204.700000               0.000967
204.800000               0.000969
204.900000               0.000972
205.000000               0.000974
205.100000               0.000977
205.200000               0.000980
205.300000               0.000982
205.400000               0.000985
205.500000               0.000988
205.600000               0.000990
205.700000               0.000993
205.800000               0.000996
205.900000               0.000998
206.000000               0.001001
206.100000               0.001004
206.200000               0.001007
206.300000               0.001009
206.400000               0.001012
206.500000               0.001015
206.600000               0.001018
206.700000               0.001020
206.800000               0.001023
206.900000               0.001026
207.000000               0.001029
207.100000               0.001032
207.200000               0.001035
207.300000               0.001038
207.400000               0.001040
207.500000               0.001043
207.600000               0.001046
207.700000               0.001049
207.800000               0.001052
207.900000               0.001055
208.000000               0.001058
208.100000               0.001061
208.200000               0.001064
208.300000               0.001067
208.400000               0.001070
208.500000               0.001073
208.600000               0.001076
208.700000               0.001079
208.800000               0.001082
208.900000               0.001085
209.000000               0.001088
209.100000               0.001091
209.200000               0.001095
209.300000               0.001098
209.400000               0.001101
209.500000               0.001104
209.600000               0.001107
209.700000               0.001110
209.800000               0.001113
209.900000               0.001117
210.000000               0.001120
210.100000               0.001123
210.200000               0.001126
210.300000               0.001130
210.400000               0.001133
210.500000               0.001136
210.600000               0.001140
210.700000               0.001143
210.800000               0.001146
210.900000               0.001150
211.000000               0.001153
211.100000               0.001156
211.200000               0.001160
211.300000               0.001163
211.400000               0.001167
211.500000               0.001170
211.600000               0.001173
211.700000               0.001177
211.800000               0.001180
211.900000               0.001184
212.000000               0.001187
212.100000               0.001191
212.200000               0.001195
212.300000               0.001198
212.400000               0.001202
212.500000               0.001205
212.600000               0.001209
212.700000               0.001213
212.800000               0.001216
212.900000               0.001220
213.000000               0.001224
213.100000               0.001227
213.200000               0.001231
213.300000               0.001235
213.400000               0.001238
213.500000               0.001242
213.600000               0.001246
213.700000               0.001250
213.800000               0.001254
213.900000               0.001257
214.000000               0.001261
214.100000               0.001265
214.200000               0.001269
214.300000               0.001273
214.400000               0.001277
214.500000               0.001281
214.600000               0.001285
214.700000               0.001289
214.800000               0.001293
214.900000               0.001297
215.000000               0.001301
215.100000               0.001305
215.200000               0.001309
215.300000               0.001313
215.400000               0.001317
215.500000               0.001321
215.600000               0.001325
215.700000               0.001330
215.800000               0.001334
215.900000               0.001338
216.000000               0.001342
216.100000               0.001346
216.200000               0.001351
216.300000               0.001355
216.400000               0.001359
216.500000               0.001364
216.600000               0.001368
216.700000               0.001372
216.800000               0.001377
216.900000               0.001381
217.000000               0.001386
217.100000               0.001390
217.200000               0.001395
217.300000               0.001399
217.400000               0.001404
217.500000               0.001408
217.600000               0.001413
217.700000               0.001417
217.800000               0.001422
217.900000               0.001427
218.000000               0.001431
218.100000               0.001436
218.200000               0.001441
218.300000               0.001445
218.400000               0.001450
218.500000               0.001455
218.600000               0.001460
218.700000               0.001465
218.800000               0.001469
218.900000               0.001474
219.000000               0.001479
219.100000               0.001484
219.200000               0.001489
219.300000               0.001494
219.400000               0.001499
219.500000               0.001504
219.600000               0.001509
219.700000               0.001514
219.800000               0.001519
219.900000               0.001524
220.000000               0.001530
220.100000               0.001535
220.200000               0.001540
220.300000               0.001545
220.400000               0.001550
220.500000               0.001556
220.600000               0.001561
220.700000               0.001566
220.800000               0.001572
220.900000               0.001577
221.000000               0.001583
221.100000               0.001588
221.200000               0.001593
221.300000               0.001599
221.400000               0.001604
221.500000               0.001610
221.600000               0.001616
221.700000               0.001621
221.800000               0.001627
221.900000               0.001633
222.000000               0.001638
222.100000               0.001644
222.200000               0.001650
222.300000               0.001656
222.400000               0.001661
222.500000               0.001667
222.600000               0.001673
222.700000               0.001679
222.800000               0.001685
222.900000               0.001691
223.000000               0.001697
223.100000               0.001703
223.200000               0.001709
223.300000               0.001715
223.400000               0.001722
223.500000               0.001728
223.600000               0.001734
223.700000               0.001740
223.800000               0.001746
223.900000               0.001753
224.000000               0.001759
224.100000               0.001766
224.200000               0.001772
224.300000               0.001778
224.400000               0.001785
224.500000               0.001791
224.600000               0.001798
224.700000               0.001805
224.800000               0.001811
224.900000               0.001818
225.000000               0.001825
225.100000               0.001831
225.200000               0.001838
225.300000               0.001845
225.400000               0.001852
225.500000               0.001859
225.600000               0.001866
225.700000               0.001873
225.800000               0.001880
225.900000               0.001887
226.000000               0.001894
226.100000               0.001901
226.200000               0.001908
226.300000               0.001916
226.400000               0.001923
226.500000               0.001930
226.600000               0.001937
226.700000               0.001945
226.800000               0.001952
226.900000               0.001960
227.000000               0.001967
227.100000               0.001975
227.200000               0.001982
227.300000               0.001990
227.400000               0.001998
227.500000               0.002006
227.600000               0.002013
227.700000               0.002021
227.800000               0.002029
227.900000               0.002037
228.000000               0.002045
228.100000               0.002053
228.200000               0.002061
228.300000               0.002069
228.400000               0.002077
228.500000               0.002085
228.600000               0.002094
228.700000               0.002102
228.800000               0.002110
228.900000               0.002119
229.000000               0.002127
229.100000               0.002136
229.200000               0.002144
229.300000               0.002153
229.400000               0.002162
229.500000               0.002170
229.600000               0.002179
229.700000               0.002188
229.800000               0.002197
229.900000               0.002206
230.000000               0.002215
230.100000               0.002224
230.200000               0.002233
230.300000               0.002242
230.400000               0.002251
230.500000               0.002261
230.600000               0.002270
230.700000               0.002279
230.800000               0.002289
230.900000               0.002298
231.000000               0.002308
231.100000               0.002317
231.200000               0.002327
231.300000               0.002337
231.400000               0.002347
231.500000               0.002357
231.600000               0.002366
231.700000               0.002376
231.800000               0.002387
231.900000               0.002397
232.000000               0.002407
232.100000               0.002417
232.200000               0.002427
232.300000               0.002438
232.400000               0.002448
232.500000               0.002459
232.600000               0.002469
232.700000               0.002480
232.800000               0.002491
232.900000               0.002502
233.000000               0.002512
233.100000               0.002523
233.200000               0.002534
233.300000               0.002545
233.400000               0.002557
233.500000               0.002568
233.600000               0.002579
233.700000               0.002591
233.800000               0.002602
233.900000               0.002614
234.000000               0.002625
234.100000               0.002637
234.200000               0.002649
234.300000               0.002660
234.400000               0.002672
234.500000               0.002684
234.600000               0.002696
234.700000               0.002709
234.800000               0.002721
234.900000               0.002733
235.000000               0.002746
235.100000               0.002758
235.200000               0.002771
235.300000               0.002783
235.400000               0.002796
235.500000               0.002809
235.600000               0.002822
235.700000               0.002835
235.800000               0.002848
235.900000               0.002861
236.000000               0.002875
236.100000               0.002888
236.200000               0.002902
236.300000               0.002915
236.400000               0.002929
236.500000               0.002943
236.600000               0.002957
236.700000               0.002971
236.800000               0.002985
236.900000               0.002999
237.000000               0.003013
237.100000               0.003028
237.200000               0.003042
237.300000               0.003057
237.400000               0.003071
237.500000               0.003086
237.600000               0.003101
237.700000               0.003116
237.800000               0.003131
237.900000               0.003147
238.000000               0.003162
238.100000               0.003177
238.200000               0.003193
238.300000               0.003209
238.400000               0.003225
238.500000               0.003240
238.600000               0.003257
238.700000               0.003273
238.800000               0.003289
238.900000               0.003305
239.000000               0.003322
239.100000               0.003339
239.200000               0.003356
239.300000               0.003372
239.400000               0.003390
239.500000               0.003407
239.600000               0.003424
239.700000               0.003441
239.800000               0.003459
239.900000               0.003477
240.000000               0.003495
240.100000               0.003513
240.200000               0.003531
240.300000               0.003549
240.400000               0.003568
240.500000               0.003586
240.600000               0.003605
240.700000               0.003624
240.800000               0.003643
240.900000               0.003662
241.000000               0.003681
241.100000               0.003701
241.200000               0.003720
241.300000               0.003740
241.400000               0.003760
241.500000               0.003780
241.600000               0.003801
241.700000               0.003821
241.800000               0.003842
241.900000               0.003862
242.000000               0.003883
242.100000               0.003904
242.200000               0.003926
242.300000               0.003947
242.400000               0.003969
242.500000               0.003991
242.600000               0.004013
242.700000               0.004035
242.800000               0.004057
242.900000               0.004080
243.000000               0.004103
243.100000               0.004126
243.200000               0.004149
243.300000               0.004172
243.400000               0.004196
243.500000               0.004219
243.600000               0.004243
243.700000               0.004267
243.800000               0.004292
243.900000               0.004316
244.000000               0.004341
244.100000               0.004366
244.200000               0.004391
244.300000               0.004417
244.400000               0.004442
244.500000               0.004468
244.600000               0.004494
244.700000               0.004521
244.800000               0.004547
244.900000               0.004574
245.000000               0.004601
245.100000               0.004628
245.200000               0.004656
245.300000               0.004684
245.400000               0.004712
245.500000               0.004740
245.600000               0.004769
245.700000               0.004797
245.800000               0.004827
245.900000               0.004856
246.000000               0.004886
246.100000               0.004915
246.200000               0.004946
246.300000               0.004976
246.400000               0.005007
246.500000               0.005038
246.600000               0.005069
246.700000               0.005101
246.800000               0.005133
246.900000               0.005165
247.000000               0.005197
247.100000               0.005230
247.200000               0.005263
247.300000               0.005297
247.400000               0.005331
247.500000               0.005365
247.600000               0.005399
247.700000               0.005434
247.800000               0.005469
247.900000               0.005504
248.000000               0.005540
248.100000               0.005576
248.200000               0.005613
248.300000               0.005650
248.400000               0.005687
248.500000               0.005725
248.600000               0.005763
248.700000               0.005801
248.800000               0.005840
248.900000               0.005879
249.000000               0.005918
249.100000               0.005958
249.200000               0.005999
249.300000               0.006040
249.400000               0.006081
249.500000               0.006122
249.600000               0.006164
249.700000               0.006207
249.800000               0.006250
249.900000               0.006293
250.000000               0.006337
250.100000               0.006381
250.200000               0.006426
250.300000               0.006471
250.400000               0.006517
250.500000               0.006563
250.600000               0.006610
250.700000               0.006657
250.800000               0.006705
250.900000               0.006753
251.000000               0.006802
251.100000               0.006852
251.200000               0.006901
251.300000               0.006952
251.400000               0.007003
251.500000               0.007054
251.600000               0.007107
251.700000               0.007159
251.800000               0.007213
251.900000               0.007266
252.000000               0.007321
252.100000               0.007376
252.200000               0.007432
252.300000               0.007488
252.400000               0.007545
252.500000               0.007603
252.600000               0.007662
252.700000               0.007721
252.800000               0.007780
252.900000               0.007841
253.000000               0.007902
253.100000               0.007964
253.200000               0.008027
253.300000               0.008090
253.400000               0.008154
253.500000               0.008219
253.600000               0.008285
253.700000               0.008351
253.800000               0.008419
253.900000               0.008487
254.000000               0.008556
254.100000               0.008626
254.200000               0.008696
254.300000               0.008768
254.400000               0.008840
254.500000               0.008914
254.600000               0.008988
254.700000               0.009063
254.800000               0.009139
254.900000               0.009217
255.000000               0.009295
255.100000               0.009374
255.200000               0.009454
255.300000               0.009535
255.400000               0.009618
255.500000               0.009701
255.600000               0.009786
255.700000               0.009871
255.800000               0.009958
255.900000               0.010046
256.000000               0.010135
256.100000               0.010225
256.200000               0.010317
256.300000               0.010409
256.400000               0.010503
256.500000               0.010599
256.600000               0.010695
256.700000               0.010793
256.800000               0.010893
256.900000               0.010993
257.000000               0.011095
257.100000               0.011199
257.200000               0.011304
257.300000               0.011410
257.400000               0.011518
257.500000               0.011628
257.600000               0.011739
257.700000               0.011852
257.800000               0.011966
257.900000               0.012082
258.000000               0.012200
258.100000               0.012320
258.200000               0.012441
258.300000               0.012564
258.400000               0.012689
258.500000               0.012816
258.600000               0.012945
258.700000               0.013076
258.800000               0.013209
258.900000               0.013343
259.000000               0.013480
259.100000               0.013619
259.200000               0.013761
259.300000               0.013904
259.400000               0.014050
259.500000               0.014198
259.600000               0.014348
259.700000               0.014501
259.800000               0.014656
259.900000               0.014814
260.000000               0.014975
260.100000               0.015138
260.200000               0.015303
260.300000               0.015472
260.400000               0.015643
260.500000               0.015817
260.600000               0.015994
260.700000               0.016175
260.800000               0.016358
260.900000               0.016544
261.000000               0.016734
261.100000               0.016926
261.200000               0.017123
261.300000               0.017322
261.400000               0.017525
261.500000               0.017732
261.600000               0.017943
261.700000               0.018157
261.800000               0.018375
261.900000               0.018597
262.000000               0.018823
262.100000               0.019053
262.200000               0.019288
262.300000               0.019527
262.400000               0.019770
262.500000               0.020018
262.600000               0.020271
262.700000               0.020529
262.800000               0.020791
262.900000               0.021059
263.000000               0.021331
263.100000               0.021609
263.200000               0.021893
263.300000               0.022182
263.400000               0.022477
263.500000               0.022777
263.600000               0.023084
263.700000               0.023397
263.800000               0.023717
263.900000               0.024043
264.000000               0.024376
264.100000               0.024715
264.200000               0.025062
264.300000               0.025416
264.400000               0.025778
264.500000               0.026147
264.600000               0.026525
264.700000               0.026910
264.800000               0.027304
264.900000               0.027706
265.000000               0.028118
265.100000               0.028538
265.200000               0.028968
265.300000               0.029408
265.400000               0.029858
265.500000               0.030317
265.600000               0.030788
265.700000               0.031269
265.800000               0.031762
265.900000               0.032266
266.000000               0.032782
266.100000               0.033310
266.200000               0.033851
266.300000               0.034405
266.400000               0.034972
266.500000               0.035554
266.600000               0.036149
266.700000               0.036759
266.800000               0.037385
266.900000               0.038026
267.000000               0.038683
267.100000               0.039357
267.200000               0.040049
267.300000               0.040758
267.400000               0.041486
267.500000               0.042232
267.600000               0.042998
267.700000               0.043785
267.800000               0.044592
267.900000               0.045422
268.000000               0.046273
268.100000               0.047148
268.200000               0.048046
268.300000               0.048970
268.400000               0.049919
268.500000               0.050894
268.600000               0.051896
268.700000               0.052927
268.800000               0.053987
268.900000               0.055078
269.000000               0.056199
269.100000               0.057353
269.200000               0.058541
269.300000               0.059763
269.400000               0.061020
269.500000               0.062315
269.600000               0.063648
269.700000               0.065021
269.800000               0.066434
269.900000               0.067890
270.000000               0.069389
270.100000               0.070933
270.200000               0.072525
270.300000               0.074164
270.400000               0.075853
270.500000               0.077593
270.600000               0.079386
270.700000               0.081233
270.800000               0.083137
270.900000               0.085099
271.000000               0.087120
271.100000               0.089202
271.200000               0.091347
271.300000               0.093557
271.400000               0.095833
271.500000               0.098177
271.600000               0.100590
271.700000               0.103074
271.800000               0.105630
271.900000               0.108259
272.000000               0.110964
272.100000               0.113743
272.200000               0.116599
272.300000               0.119533
272.400000               0.122544
272.500000               0.125632
272.600000               0.128797
272.700000               0.132040
272.800000               0.135358
272.900000               0.138751
273.000000               0.142216
273.100000               0.145752
273.200000               0.149355
273.300000               0.153021
273.400000               0.156747
273.500000               0.160527
273.600000               0.164356
273.700000               0.168226
273.800000               0.172132
273.900000               0.176064
274.000000               0.180014
274.100000               0.183971
274.200000               0.187924
274.300000               0.191864
274.400000               0.195776
274.500000               0.199648
274.600000               0.203467
274.700000               0.207219
274.800000               0.210889
274.900000               0.214464
275.000000               0.217928
275.100000               0.221268
275.200000               0.224470
275.300000               0.227522
275.400000               0.230412
275.500000               0.233128
275.600000               0.235662
275.700000               0.238005
275.800000               0.240152
275.900000               0.242099
276.000000               0.243844
276.100000               0.245387
276.200000               0.246731
276.300000               0.247879
276.400000               0.248838
276.500000               0.249618
276.600000               0.250228
276.700000               0.250681
276.800000               0.250991
276.900000               0.251171
277.000000               0.251239
277.100000               0.251210
277.200000               0.251102
277.300000               0.250931
277.400000               0.250713
277.500000               0.250467
277.600000               0.250206
277.700000               0.249945
277.800000               0.249697
277.900000               0.249474
278.000000               0.249285
278.100000               0.249139
278.200000               0.249040
278.300000               0.248993
278.400000               0.248996
278.500000               0.249049
278.600000               0.249146
278.700000               0.249280
278.800000               0.249442
278.900000               0.249617
279.000000               0.249791
279.100000               0.249946
279.200000               0.250063
279.300000               0.250120
279.400000               0.250097
279.500000               0.249971
279.600000               0.249720
279.700000               0.249324
279.800000               0.248763
279.900000               0.248020
280.000000               0.247082
280.100000               0.245938
280.200000               0.244583
280.300000               0.243015
280.400000               0.241235
280.500000               0.239252
280.600000               0.237076
280.700000               0.234722
280.800000               0.232209
280.900000               0.229557
281.000000               0.226790
281.100000               0.223933
281.200000               0.221012
281.300000               0.218051
281.400000               0.215078
281.500000               0.212117
281.600000               0.209192
281.700000               0.206326
281.800000               0.203540
281.900000               0.200853
282.000000               0.198283
282.100000               0.195845
282.200000               0.193555
282.300000               0.191424
282.400000               0.189464
282.500000               0.187685
282.600000               0.186096
282.700000               0.184703
282.800000               0.183514
282.900000               0.182533
283.000000               0.181767
283.100000               0.181219
283.200000               0.180893
283.300000               0.180794
283.400000               0.180922
283.500000               0.181281
283.600000               0.181874
283.700000               0.182701
283.800000               0.183763
283.900000               0.185062
284.000000               0.186596
284.100000               0.188365
284.200000               0.190367
284.300000               0.192598
284.400000               0.195054
284.500000               0.197729
284.600000               0.200615
284.700000               0.203701
284.800000               0.206974
284.900000               0.210418
285.000000               0.214015
285.100000               0.217743
285.200000               0.221574
285.300000               0.225478
285.400000               0.229422
285.500000               0.233366
285.600000               0.237269
285.700000               0.241083
285.800000               0.244760
285.900000               0.248247
286.000000               0.251490
286.100000               0.254436
286.200000               0.257030
286.300000               0.259221
286.400000               0.260962
286.500000               0.262210
286.600000               0.262930
286.700000               0.263094
286.800000               0.262683
286.900000               0.261690
287.000000               0.260116
287.100000               0.257971
287.200000               0.255277
287.300000               0.252063
287.400000               0.248366
287.500000               0.244228
287.600000               0.239698
287.700000               0.234826
287.800000               0.229663
287.900000               0.224262
288.000000               0.218672
288.100000               0.212944
288.200000               0.207122
288.300000               0.201248
288.400000               0.195361
288.500000               0.189495
288.600000               0.183678
288.700000               0.177938
288.800000               0.172294
288.900000               0.166766
289.000000               0.161368
289.100000               0.156110
289.200000               0.151002
289.300000               0.146050
289.400000               0.141258
289.500000               0.136627
289.600000               0.132159
289.700000               0.127853
289.800000               0.123707
289.900000               0.119718
290.000000               0.115884
290.100000               0.112200
290.200000               0.108662
290.300000               0.105265
290.400000               0.102006
290.500000               0.098877
290.600000               0.095876
290.700000               0.092997
290.800000               0.090234
290.900000               0.087584
291.000000               0.085040
291.100000               0.082600
291.200000               0.080257
291.300000               0.078008
291.400000               0.075848
291.500000               0.073774
291.600000               0.071781
291.700000               0.069866
291.800000               0.068025
291.900000               0.066255
292.000000               0.064552
292.100000               0.062914
292.200000               0.061337
292.300000               0.059818
292.400000               0.058356
292.500000               0.056947
292.600000               0.055588
292.700000               0.054279
292.800000               0.053016
292.900000               0.051797
293.000000               0.050620
293.100000               0.049484
293.200000               0.048387
293.300000               0.047327
293.400000               0.046302
293.500000               0.045311
293.600000               0.044353
293.700000               0.043425
293.800000               0.042528
293.900000               0.041659
294.000000               0.040817
294.100000               0.040002
294.200000               0.039211
294.300000               0.038445
294.400000               0.037702
294.500000               0.036981
294.600000               0.036281
294.700000               0.035602
294.800000               0.034943
294.900000               0.034303
295.000000               0.033681
295.100000               0.033076
295.200000               0.032489
295.300000               0.031917
295.400000               0.031362
295.500000               0.030821
295.600000               0.030295
295.700000               0.029783
295.800000               0.029284
295.900000               0.028799
296.000000               0.028326
296.100000               0.027865
296.200000               0.027416
296.300000               0.026978
296.400000               0.026551
296.500000               0.026135
296.600000               0.025728
296.700000               0.025332
296.800000               0.024945
296.900000               0.024568
297.000000               0.024199
297.100000               0.023840
297.200000               0.023488
297.300000               0.023145
297.400000               0.022809
297.500000               0.022481
297.600000               0.022161
297.700000               0.021847
297.800000               0.021541
297.900000               0.021241
298.000000               0.020948
298.100000               0.020661
298.200000               0.020380
298.300000               0.020106
298.400000               0.019837
298.500000               0.019573
298.600000               0.019316
298.700000               0.019063
298.800000               0.018816
298.900000               0.018573
299.000000               0.018336
299.100000               0.018103
299.200000               0.017875
299.300000               0.017651
299.400000               0.017432
299.500000               0.017217
299.600000               0.017006
299.700000               0.016800
299.800000               0.016597
299.900000               0.016398
300.000000               0.016202
300.100000               0.016011
300.200000               0.015822
300.300000               0.015638
300.400000               0.015456
300.500000               0.015278
300.600000               0.015103
300.700000               0.014932
300.800000               0.014763
300.900000               0.014597
301.000000               0.014434
301.100000               0.014274
301.200000               0.014117
301.300000               0.013963
301.400000               0.013811
301.500000               0.013661
301.600000               0.013515
301.700000               0.013370
301.800000               0.013228
301.900000               0.013089
302.000000               0.012951
302.100000               0.012816
302.200000               0.012683
302.300000               0.012553
302.400000               0.012424
302.500000               0.012297
302.600000               0.012173
302.700000               0.012050
302.800000               0.011929
302.900000               0.011810
303.000000               0.011693
303.100000               0.011578
303.200000               0.011465
303.300000               0.011353
303.400000               0.011243
303.500000               0.011135
303.600000               0.011028
303.700000               0.010923
303.800000               0.010819
303.900000               0.010717
304.000000               0.010616
304.100000               0.010517
304.200000               0.010419
304.300000               0.010323
304.400000               0.010228
304.500000               0.010135
304.600000               0.010042
304.700000               0.009951
304.800000               0.009862
304.900000               0.009773
305.000000               0.009686
305.100000               0.009600
305.200000               0.009515
305.300000               0.009432
305.400000               0.009349
305.500000               0.009268
305.600000               0.009187
305.700000               0.009108
305.800000               0.009030
305.900000               0.008953
306.000000               0.008877
306.100000               0.008801
306.200000               0.008727
306.300000               0.008654
306.400000               0.008582
306.500000               0.008510
306.600000               0.008440
306.700000               0.008371
306.800000               0.008302
306.900000               0.008234
307.000000               0.008167
307.100000               0.008101
307.200000               0.008036
307.300000               0.007972
307.400000               0.007908
307.500000               0.007845
307.600000               0.007783
307.700000               0.007722
307.800000               0.007661
307.900000               0.007601
308.000000               0.007542
308.100000               0.007484
308.200000               0.007426
308.300000               0.007369
308.400000               0.007312
308.500000               0.007257
308.600000               0.007202
308.700000               0.007147
308.800000               0.007093
308.900000               0.007040
309.000000               0.006988
309.100000               0.006936
309.200000               0.006884
309.300000               0.006833
309.400000               0.006783
309.500000               0.006734
309.600000               0.006685
309.700000               0.006636
309.800000               0.006588
309.900000               0.006541
310.000000               0.006494
310.100000               0.006447
310.200000               0.006401
310.300000               0.006356
310.400000               0.006311
310.500000               0.006266
310.600000               0.006223
310.700000               0.006179
310.800000               0.006136
310.900000               0.006093
311.000000               0.006051
311.100000               0.006010
311.200000               0.005968
311.300000               0.005928
311.400000               0.005887
311.500000               0.005847
311.600000               0.005808
311.700000               0.005769
311.800000               0.005730
311.900000               0.005692
312.000000               0.005654
312.100000               0.005616
312.200000               0.005579
312.300000               0.005542
312.400000               0.005506
312.500000               0.005470
312.600000               0.005434
312.700000               0.005399
312.800000               0.005364
312.900000               0.005329
313.000000               0.005295
313.100000               0.005261
313.200000               0.005227
313.300000               0.005194
313.400000               0.005161
313.500000               0.005128
313.600000               0.005096
313.700000               0.005064
313.800000               0.005032
313.900000               0.005001
314.000000               0.004970
314.100000               0.004939
314.200000               0.004908
314.300000               0.004878
314.400000               0.004848
314.500000               0.004818
314.600000               0.004789
314.700000               0.004760
314.800000               0.004731
314.900000               0.004702
315.000000               0.004674
315.100000               0.004646
315.200000               0.004618
315.300000               0.004591
315.400000               0.004563
315.500000               0.004536
315.600000               0.004510
315.700000               0.004483
315.800000               0.004457
315.900000               0.004431
316.000000               0.004405
316.100000               0.004379
316.200000               0.004354
316.300000               0.004328
316.400000               0.004303
316.500000               0.004279
316.600000               0.004254
316.700000               0.004230
316.800000               0.004206
316.900000               0.004182
317.000000               0.004158
317.100000               0.004135
317.200000               0.004111
317.300000               0.004088
317.400000               0.004065
317.500000               0.004043
317.600000               0.004020
317.700000               0.003998
317.800000               0.003976
317.900000               0.003954
318.000000               0.003932
318.100000               0.003911
318.200000               0.003889
318.300000               0.003868
318.400000               0.003847
318.500000               0.003826
318.600000               0.003805
318.700000               0.003785
318.800000               0.003765
318.900000               0.003744
319.000000               0.003724
319.100000               0.003704
319.200000               0.003685
319.300000               0.003665
319.400000               0.003646
319.500000               0.003627
319.600000               0.003608
319.700000               0.003589
319.800000               0.003570
319.900000               0.003551
320.000000               0.003533
320.100000               0.003514
320.200000               0.003496
320.300000               0.003478
320.400000               0.003460
320.500000               0.003443
320.600000               0.003425
320.700000               0.003407
320.800000               0.003390
320.900000               0.003373
321.000000               0.003356
321.100000               0.003339
321.200000               0.003322
321.300000               0.003305
321.400000               0.003289
321.500000               0.003272
321.600000               0.003256
321.700000               0.003240
321.800000               0.003224
321.900000               0.003208
322.000000               0.003192
322.100000               0.003176
322.200000               0.003161
322.300000               0.003145
322.400000               0.003130
322.500000               0.003115
322.600000               0.003099
322.700000               0.003084
322.800000               0.003070
322.900000               0.003055
323.000000               0.003040
323.100000               0.003025
323.200000               0.003011
323.300000               0.002997
323.400000               0.002982
323.500000               0.002968
323.600000               0.002954
323.700000               0.002940
323.800000               0.002926
323.900000               0.002912
324.000000               0.002899
324.100000               0.002885
324.200000               0.002872
324.300000               0.002858
324.400000               0.002845
324.500000               0.002832
324.600000               0.002819
324.700000               0.002806
324.800000               0.002793
324.900000               0.002780
325.000000               0.002767
325.100000               0.002755
325.200000               0.002742
